# observed Vega fluxes
# from Hayes 1985 IAU Symp 111 and Mountain et al. 1985 A&A 151, 399
# wavelength  flux
#  Angstrom ergs/s/cm^2/A (= x10 to get W/m^2/micron)
#
   3300.10  3.34365E-09
   3325.10  3.28270E-09
   3350.10  3.24376E-09
   3375.10  3.23779E-09
   3400.10  3.23173E-09
   3425.10  3.19913E-09
   3450.10  3.16108E-09
   3475.10  3.12923E-09
   3500.10  3.10347E-09
   3525.10  3.09490E-09
   3550.10  3.08631E-09
   3575.10  3.06369E-09
   3600.10  3.04961E-09
   3625.10  3.03571E-09
   3650.10  3.04691E-09
   3675.10  3.05814E-09
   3700.10  3.06700E-09
   3725.10  3.17754E-09
   3750.10  3.64509E-09
   3775.10  4.22393E-09
   3800.10  4.91657E-09
   3825.10  5.54746E-09
   3850.10  6.37429E-09
   3875.10  7.06362E-09
   3900.10  6.96370E-09
   3925.10  7.75023E-09
   3950.10  7.16089E-09
   3975.10  6.81932E-09
   4000.10  8.04617E-09
   4025.10  8.69831E-09
   4050.10  8.60569E-09
   4075.10  7.37958E-09
   4100.10  6.50439E-09
   4125.10  7.10635E-09
   4150.10  7.94021E-09
   4175.10  7.84564E-09
   4200.10  7.73807E-09
   4225.10  7.65279E-09
   4250.10  7.50584E-09
   4275.10  7.27950E-09
   4300.10  6.67346E-09
   4325.10  5.61639E-09
   4350.10  5.63445E-09
   4375.10  6.31493E-09
   4400.10  6.74578E-09
   4425.10  6.66542E-09
   4450.10  6.56784E-09
   4475.10  6.45991E-09
   4500.10  6.35936E-09
   4525.10  6.21987E-09
   4550.10  5.97400E-09
   4575.10  6.01779E-09
   4600.10  5.96253E-09
   4625.10  5.88609E-09
   4650.10  5.79987E-09
   4675.10  5.68879E-09
   4700.10  5.58496E-09
   4725.10  5.48299E-09
   4750.10  5.37311E-09
   4775.10  5.28954E-09
   4800.10  5.18700E-09
   4825.10  4.79495E-09
   4850.10  4.11017E-09
   4875.10  4.13088E-09
   4900.10  4.60414E-09
   4925.10  4.86441E-09
   4950.10  4.80198E-09
   4975.10  4.71442E-09
   5000.10  4.64970E-09
   5025.10  4.57748E-09
   5050.10  4.50640E-09
   5075.10  4.44863E-09
   5100.10  4.38359E-09
   5125.10  4.32342E-09
   5150.10  4.26019E-09
   5175.10  4.20171E-09
   5200.10  4.14030E-09
   5225.10  4.09099E-09
   5250.10  4.03489E-09
   5275.10  3.98682E-09
   5300.10  3.92860E-09
   5325.10  3.89611E-09
   5350.10  3.84617E-09
   5375.10  3.79343E-09
   5400.10  3.74825E-09
   5425.10  3.69682E-09
   5450.10  3.64612E-09
   5475.10  3.59935E-09
   5500.10  3.54020E-09
   5525.10  3.49166E-09
   5550.10  3.45015E-09
   5575.10  3.42159E-09
   5600.10  3.37149E-09
   5625.10  3.31305E-09
   5650.10  3.26459E-09
   5675.10  3.21978E-09
   5700.10  3.17274E-09
   5725.10  3.14071E-09
   5750.10  3.09762E-09
   5775.10  3.05513E-09
   5800.10  3.01328E-09
   5825.10  2.99104E-09
   5850.10  2.93919E-09
   5875.10  2.89886E-09
   5900.10  2.85646E-09
   5925.10  2.81466E-09
   5950.10  2.77351E-09
   5975.10  2.73794E-09
   6000.10  2.69545E-09
   6025.10  2.66092E-09
   6050.10  2.62928E-09
   6075.10  2.60275E-09
   6100.10  2.57412E-09
   6125.10  2.53880E-09
   6150.10  2.50396E-09
   6175.10  2.46961E-09
   6200.10  2.43573E-09
   6225.10  2.40230E-09
   6250.10  2.36722E-09
   6275.10  2.34764E-09
   6300.10  2.32182E-09
   6325.10  2.29001E-09
   6350.10  2.26904E-09
   6375.10  2.25652E-09
   6400.10  2.23988E-09
   6425.10  2.20511E-09
   6450.10  2.17686E-09
   6475.10  2.14694E-09
   6500.10  2.10715E-09
   6525.10  1.92522E-09
   6550.10  1.74494E-09
   6575.10  1.67510E-09
   6600.10  1.86547E-09
   6625.10  2.01481E-09
   6650.10  1.99266E-09
   6675.10  1.97076E-09
   6700.10  1.94912E-09
   6725.10  1.93301E-09
   6750.10  1.91175E-09
   6775.10  1.88900E-09
   6800.10  1.86650E-09
   6825.10  1.84089E-09
   6850.10  1.81398E-09
   6875.10  1.79403E-09
   6900.10  1.76942E-09
   6925.10  1.74680E-09
   6950.10  1.73713E-09
   6975.10  1.71807E-09
   7000.10  1.70699E-09
   7025.10  1.68667E-09
   7050.10  1.66506E-09
   7075.10  1.64374E-09
   7100.10  1.62565E-09
   7125.10  1.60335E-09
   7150.10  1.58138E-09
   7175.10  1.56688E-09
   7200.10  1.55252E-09
   7225.10  1.53828E-09
   7250.10  1.52276E-09
   7275.10  1.50324E-09
   7300.10  1.48264E-09
   7325.10  1.46769E-09
   7350.10  1.45157E-09
   7375.10  1.43959E-09
   7400.10  1.42900E-09
   7425.10  1.41330E-09
   7450.10  1.39777E-09
   7475.10  1.38368E-09
   7500.10  1.36972E-09
   7525.10  1.35343E-09
   7550.10  1.34224E-09
   7575.10  1.32386E-09
   7600.10  1.31410E-09
   7625.10  1.29610E-09
   7650.10  1.28658E-09
   7675.10  1.27593E-09
   7700.10  1.25615E-09
   7725.10  1.24692E-09
   7750.10  1.23773E-09
   7775.10  1.21966E-09
   7800.10  1.20959E-09
   7825.10  1.20072E-09
   7850.10  1.19189E-09
   7875.10  1.18205E-09
   7900.10  1.17226E-09
   7925.10  1.15302E-09
   7950.10  1.14350E-09
   7975.10  1.13302E-09
   8000.10  1.12367E-09
   8025.10  1.11439E-09
   8050.10  1.10519E-09
   8075.10  1.09506E-09
   8100.10  1.08502E-09
   8125.10  1.07606E-09
   8150.10  1.06615E-09
   8175.10  1.04577E-09
   8200.10  1.03619E-09
   8225.10  1.02669E-09
   8250.10  1.01726E-09
   8275.10  1.00608E-09
   8300.10  9.95950E-10
   8325.10  9.86809E-10
   8350.10  9.75974E-10
   8375.10  9.67016E-10
   8400.10  9.56351E-10
   8425.10  9.37206E-10
   8450.10  9.27756E-10
   8475.10  9.17559E-10
   8500.10  9.07434E-10
   8525.10  8.87633E-10
   8550.10  8.77837E-10
   8575.10  8.57850E-10
   8600.10  8.37787E-10
   8625.10  8.78107E-10
   8650.10  9.27101E-10
   8675.10  9.67054E-10
   8700.10  9.65624E-10
   8725.10  8.38282E-10
   8750.10  8.09229E-10
   8775.10  9.17751E-10
   8800.10  9.56015E-10
   8825.10  8.57602E-10
   8850.10  7.79219E-10
   8875.10  8.78072E-10
   8900.10  9.17599E-10
   8925.10  9.17559E-10
   8950.10  9.07143E-10
   8975.10  8.18666E-10
   9000.10  6.70893E-10
   9025.10  6.71330E-10
   9050.10  7.89876E-10
   9075.10  8.39137E-10
   9100.10  8.29107E-10
   9125.10  8.09279E-10
   9150.10  7.40085E-10
   9175.10  6.70603E-10
   9200.10  6.01762E-10
   9225.10  5.92168E-10
   9250.10  6.61477E-10
   9275.10  7.69696E-10
   9300.10  7.99156E-10
   9325.10  7.89644E-10
   9350.10  7.79526E-10
   9375.10  7.69579E-10
   9400.10  7.69502E-10
   9425.10  7.49868E-10
   9450.10  7.20616E-10
   9475.10  6.61351E-10
   9500.10  5.81929E-10
   9525.10  5.23661E-10
   9550.10  5.23543E-10
   9575.10  6.22350E-10
   9600.10  6.91077E-10
   9625.10  7.20900E-10
   9650.10  7.30182E-10
   9675.10  7.20863E-10
   9700.10  7.20781E-10
   9725.10  7.00494E-10
   9750.10  6.81440E-10
   9775.10  6.71474E-10
   9800.10  6.62257E-10
   9825.10  6.52009E-10
   9850.10  6.52607E-10
   9875.10  6.51972E-10
   9900.10  6.43022E-10
   9925.10  6.32950E-10
   9950.10  6.03344E-10
   9975.10  5.73496E-10
  10000.10  5.34132E-10
  10025.10  4.74748E-10
  10050.10  4.25973E-10
  10075.10  5.15167E-10
  10100.10  5.44433E-10
  10125.10  5.74228E-10
  10150.10  5.84901E-10
  10175.10  5.94679E-10
  10200.10  6.04541E-10
  10225.10  5.94640E-10
  10250.10  5.94604E-10
  10275.10  5.85942E-10
  10300.10  5.86440E-10
  10325.10  5.76306E-10
  10350.10  5.76800E-10
  10375.10  5.67877E-10
  10400.10  5.68359E-10
  10425.10  5.58540E-10
  10450.10  5.59017E-10
  10475.10  5.49862E-10
  10500.10  5.49844E-10
  10525.10  5.45619E-10
  10550.10  5.41428E-10
  10575.10  5.37270E-10
  10600.10  5.33142E-10
  10625.10  5.29046E-10
  10650.10  5.24983E-10
  10675.10  5.20950E-10
  10700.10  5.16948E-10
  10725.10  5.12976E-10
  10750.10  5.09035E-10
  10775.10  5.05126E-10
  10800.10  5.01245E-10
  10825.10  4.97395E-10
  10850.10  4.93573E-10
  10875.10  4.89782E-10
  10900.10  4.86019E-10
  10925.10  4.82286E-10
  10950.10  4.78581E-10
  10975.10  4.74905E-10
  11000.10  4.71257E-10
  11025.10  4.67637E-10
  11050.10  4.64044E-10
  11075.10  4.60479E-10
  11100.10  4.56942E-10
  11125.10  4.53431E-10
  11150.10  4.49949E-10
  11175.10  4.46492E-10
  11200.10  4.43062E-10
  11225.10  4.39659E-10
  11250.10  4.36281E-10
  11275.10  4.32930E-10
  11300.10  4.29604E-10
  11325.10  4.26304E-10
  11350.10  4.23028E-10
  11375.10  4.19779E-10
  11400.10  4.16554E-10
  11425.10  4.13354E-10
  11450.10  4.10180E-10
  11475.10  4.07029E-10
  11500.10  4.03902E-10
  11525.10  4.00799E-10
  11550.10  3.97720E-10
  11575.10  3.94665E-10
  11600.10  3.91632E-10
  11625.10  3.88624E-10
  11650.10  3.85639E-10
  11675.10  3.82677E-10
  11700.10  3.79737E-10
  11725.10  3.76820E-10
  11750.10  3.73925E-10
  11775.10  3.71052E-10
  11800.10  3.68202E-10
  11825.10  3.65374E-10
  11850.10  3.62567E-10
  11875.10  3.59782E-10
  11900.10  3.57018E-10
  11925.10  3.54276E-10
  11950.10  3.51554E-10
  11975.10  3.48853E-10
  12000.10  3.46173E-10
  12025.10  3.43514E-10
  12050.10  3.40875E-10
  12075.10  3.38257E-10
  12100.10  3.35658E-10
  12125.10  3.33079E-10
  12150.10  3.30521E-10
  12175.10  3.27982E-10
  12200.10  3.25462E-10
  12225.10  3.22963E-10
  12250.10  3.20482E-10
  12275.10  3.18020E-10
  12300.10  3.15576E-10
  12325.10  3.13152E-10
  12350.10  3.10747E-10
  12375.10  3.08360E-10
  12400.10  3.05992E-10
  12425.10  3.04016E-10
  12450.10  3.02053E-10
  12475.10  3.00103E-10
  12500.10  2.98164E-10
  12525.10  2.96240E-10
  12550.10  2.94326E-10
  12575.10  2.92426E-10
  12600.10  2.90538E-10
  12625.10  2.88662E-10
  12650.10  2.86798E-10
  12675.10  2.84946E-10
  12700.10  2.83106E-10
  12725.10  2.81278E-10
  12750.10  2.79462E-10
  12775.10  2.77657E-10
  12800.10  2.75864E-10
  12825.10  2.74083E-10
  12850.10  2.72313E-10
  12875.10  2.70555E-10
  12900.10  2.68808E-10
  12925.10  2.67072E-10
  12950.10  2.65347E-10
  12975.10  2.63634E-10
  13000.10  2.61932E-10
  13025.10  2.60240E-10
  13050.10  2.58560E-10
  13075.10  2.56891E-10
  13100.10  2.55232E-10
  13125.10  2.53584E-10
  13150.10  2.51946E-10
  13175.10  2.50320E-10
  13200.10  2.48703E-10
  13225.10  2.47097E-10
  13250.10  2.45501E-10
  13275.10  2.43916E-10
  13300.10  2.42341E-10
  13325.10  2.40776E-10
  13350.10  2.39222E-10
  13375.10  2.37677E-10
  13400.10  2.36142E-10
  13425.10  2.34617E-10
  13450.10  2.33102E-10
  13475.10  2.31597E-10
  13500.10  2.30101E-10
  13525.10  2.28616E-10
  13550.10  2.27140E-10
  13575.10  2.25673E-10
  13600.10  2.24216E-10
  13625.10  2.22768E-10
  13650.10  2.21330E-10
  13675.10  2.19900E-10
  13700.10  2.18480E-10
  13725.10  2.17069E-10
  13750.10  2.15668E-10
  13775.10  2.14275E-10
  13800.10  2.12892E-10
  13825.10  2.11516E-10
  13850.10  2.10151E-10
  13875.10  2.08794E-10
  13900.10  2.07446E-10
  13925.10  2.06106E-10
  13950.10  2.04775E-10
  13975.10  2.03453E-10
  14000.10  2.02139E-10
  14025.10  2.00834E-10
  14050.10  1.99537E-10
  14075.10  1.98249E-10
  14100.10  1.96969E-10
  14125.10  1.95697E-10
  14150.10  1.94433E-10
  14175.10  1.93177E-10
  14200.10  1.91930E-10
  14225.10  1.90691E-10
  14250.10  1.89459E-10
  14275.10  1.88236E-10
  14300.10  1.87021E-10
  14325.10  1.85813E-10
  14350.10  1.84613E-10
  14375.10  1.83421E-10
  14400.10  1.82237E-10
  14425.10  1.81060E-10
  14450.10  1.79891E-10
  14475.10  1.78729E-10
  14500.10  1.77575E-10
  14525.10  1.76428E-10
  14550.10  1.75289E-10
  14575.10  1.74157E-10
  14600.10  1.73033E-10
  14625.10  1.71916E-10
  14650.10  1.70805E-10
  14675.10  1.69703E-10
  14700.10  1.68607E-10
  14725.10  1.67518E-10
  14750.10  1.66436E-10
  14775.10  1.65361E-10
  14800.10  1.64294E-10
  14825.10  1.63233E-10
  14850.10  1.62179E-10
  14875.10  1.61132E-10
  14900.10  1.60091E-10
  14925.10  1.59057E-10
  14950.10  1.58031E-10
  14975.10  1.57010E-10
  15000.10  1.55997E-10
  15025.10  1.55222E-10
  15050.10  1.54450E-10
  15075.10  1.53683E-10
  15100.10  1.52919E-10
  15125.10  1.52159E-10
  15150.10  1.51403E-10
  15175.10  1.50651E-10
  15200.10  1.49902E-10
  15225.10  1.49157E-10
  15250.10  1.48416E-10
  15275.10  1.47678E-10
  15300.10  1.46945E-10
  15325.10  1.46214E-10
  15350.10  1.45488E-10
  15375.10  1.44765E-10
  15400.10  1.44046E-10
  15425.10  1.43330E-10
  15450.10  1.42618E-10
  15475.10  1.41909E-10
  15500.10  1.41204E-10
  15525.10  1.40502E-10
  15550.10  1.39804E-10
  15575.10  1.39109E-10
  15600.10  1.38418E-10
  15625.10  1.37730E-10
  15650.10  1.37045E-10
  15675.10  1.36364E-10
  15700.10  1.35687E-10
  15725.10  1.35012E-10
  15750.10  1.34342E-10
  15775.10  1.33674E-10
  15800.10  1.33010E-10
  15825.10  1.32349E-10
  15850.10  1.31691E-10
  15875.10  1.31037E-10
  15900.10  1.30386E-10
  15925.10  1.29738E-10
  15950.10  1.29093E-10
  15975.10  1.28451E-10
  16000.10  1.27813E-10
  16025.10  1.27178E-10
  16050.10  1.26546E-10
  16075.10  1.25917E-10
  16100.10  1.25291E-10
  16125.10  1.24669E-10
  16150.10  1.24049E-10
  16175.10  1.23433E-10
  16200.10  1.22820E-10
  16225.10  1.22209E-10
  16250.10  1.21602E-10
  16275.10  1.20998E-10
  16300.10  1.20396E-10
  16325.10  1.19798E-10
  16350.10  1.19203E-10
  16375.10  1.18611E-10
  16400.10  1.18021E-10
  16425.10  1.17434E-10
  16450.10  1.16851E-10
  16475.10  1.16271E-10
  16500.10  1.15692E-10
  16525.10  1.15118E-10
  16550.10  1.14546E-10
  16575.10  1.13976E-10
  16600.10  1.13410E-10
  16625.10  1.12847E-10
  16650.10  1.12286E-10
  16675.10  1.11728E-10
  16700.10  1.11173E-10
  16725.10  1.10620E-10
  16750.10  1.10070E-10
  16775.10  1.09523E-10
  16800.10  1.08979E-10
  16825.10  1.08438E-10
  16850.10  1.07899E-10
  16875.10  1.07363E-10
  16900.10  1.06829E-10
  16925.10  1.06298E-10
  16950.10  1.05770E-10
  16975.10  1.05244E-10
  17000.10  1.04721E-10
  17025.10  1.04201E-10
  17050.10  1.03683E-10
  17075.10  1.03168E-10
  17100.10  1.02655E-10
  17125.10  1.02145E-10
  17150.10  1.01638E-10
  17175.10  1.01132E-10
  17200.10  1.00630E-10
  17225.10  1.00130E-10
  17250.10  9.96324E-11
  17275.10  9.91372E-11
  17300.10  9.86447E-11
  17325.10  9.81544E-11
  17350.10  9.76666E-11
  17375.10  9.71814E-11
  17400.10  9.66984E-11
  17425.10  9.62178E-11
  17450.10  9.57398E-11
  17475.10  9.52639E-11
  17500.10  9.47905E-11
  17525.10  9.43196E-11
  17550.10  9.38508E-11
  17575.10  9.33845E-11
  17600.10  9.29204E-11
  17625.10  9.24588E-11
  17650.10  9.19990E-11
  17675.10  9.15420E-11
  17700.10  9.10872E-11
  17725.10  9.06345E-11
  17750.10  9.01840E-11
  17775.10  8.97360E-11
  17800.10  8.92900E-11
  17825.10  8.88462E-11
  17850.10  8.84048E-11
  17875.10  8.79656E-11
  17900.10  8.75284E-11
  17925.10  8.70934E-11
  17950.10  8.66607E-11
  17975.10  8.62300E-11
  18000.10  8.58014E-11
  18025.10  8.53752E-11
  18050.10  8.49509E-11
  18075.10  8.45286E-11
  18100.10  8.41087E-11
  18125.10  8.36909E-11
  18150.10  8.32749E-11
  18175.10  8.28610E-11
  18200.10  8.24494E-11
  18225.10  8.20396E-11
  18250.10  8.16318E-11
  18275.10  8.12263E-11
  18300.10  8.08226E-11
  18325.10  8.04209E-11
  18350.10  8.00214E-11
  18375.10  7.96236E-11
  18400.10  7.92279E-11
  18425.10  7.88343E-11
  18450.10  7.84426E-11
  18475.10  7.80528E-11
  18500.10  7.76648E-11
  18525.10  7.72790E-11
  18550.10  7.68949E-11
  18575.10  7.65129E-11
  18600.10  7.61326E-11
  18625.10  7.57542E-11
  18650.10  7.53779E-11
  18675.10  7.50033E-11
  18700.10  7.46305E-11
  18725.10  7.42597E-11
  18750.10  7.38906E-11
  18775.10  7.35235E-11
  18800.10  7.31581E-11
  18825.10  7.27945E-11
  18850.10  7.24329E-11
  18875.10  7.20729E-11
  18900.10  7.17148E-11
  18925.10  7.13584E-11
  18950.10  7.10039E-11
  18975.10  7.06510E-11
  19000.10  7.02998E-11
  19025.10  6.99504E-11
  19050.10  6.96028E-11
  19075.10  6.92571E-11
  19100.10  6.89129E-11
  19125.10  6.85704E-11
  19150.10  6.82298E-11
  19175.10  6.78907E-11
  19200.10  6.75532E-11
  19225.10  6.72176E-11
  19250.10  6.68835E-11
  19275.10  6.65511E-11
  19300.10  6.62205E-11
  19325.10  6.58914E-11
  19350.10  6.55640E-11
  19375.10  6.52382E-11
  19400.10  6.49139E-11
  19425.10  6.45913E-11
  19450.10  6.42705E-11
  19475.10  6.39510E-11
  19500.10  6.36333E-11
  19525.10  6.33171E-11
  19550.10  6.30024E-11
  19575.10  6.26893E-11
  19600.10  6.23779E-11
  19625.10  6.20679E-11
  19650.10  6.17594E-11
  19675.10  6.14525E-11
  19700.10  6.11471E-11
  19725.10  6.08433E-11
  19750.10  6.05409E-11
  19775.10  6.02402E-11
  19800.10  5.99408E-11
  19825.10  5.96429E-11
  19850.10  5.93464E-11
  19875.10  5.90516E-11
  19900.10  5.87582E-11
  19925.10  5.84662E-11
  19950.10  5.81756E-11
  19975.10  5.78865E-11
  20000.10  5.75991E-11
  20025.10  5.73637E-11
  20050.10  5.71293E-11
  20075.10  5.68959E-11
  20100.10  5.66636E-11
  20125.10  5.64322E-11
  20150.10  5.62015E-11
  20175.10  5.59718E-11
  20200.10  5.57432E-11
  20225.10  5.55155E-11
  20250.10  5.52887E-11
  20275.10  5.50628E-11
  20300.10  5.48377E-11
  20325.10  5.46137E-11
  20350.10  5.43906E-11
  20375.10  5.41685E-11
  20400.10  5.39472E-11
  20425.10  5.37267E-11
  20450.10  5.35073E-11
  20475.10  5.32887E-11
  20500.10  5.30710E-11
  20525.10  5.28541E-11
  20550.10  5.26382E-11
  20575.10  5.24231E-11
  20600.10  5.22089E-11
  20625.10  5.19957E-11
  20650.10  5.17832E-11
  20675.10  5.15716E-11
  20700.10  5.13609E-11
  20725.10  5.11511E-11
  20750.10  5.09421E-11
  20775.10  5.07340E-11
  20800.10  5.05268E-11
  20825.10  5.03204E-11
  20850.10  5.01147E-11
  20875.10  4.99100E-11
  20900.10  4.97060E-11
  20925.10  4.95030E-11
  20950.10  4.93008E-11
  20975.10  4.90994E-11
  21000.10  4.88987E-11
  21025.10  4.86990E-11
  21050.10  4.85001E-11
  21075.10  4.83020E-11
  21100.10  4.81045E-11
  21125.10  4.79080E-11
  21150.10  4.77122E-11
  21175.10  4.75174E-11
  21200.10  4.73233E-11
  21225.10  4.71298E-11
  21250.10  4.69373E-11
  21275.10  4.67456E-11
  21300.10  4.65545E-11
  21325.10  4.63644E-11
  21350.10  4.61750E-11
  21375.10  4.59863E-11
  21400.10  4.57984E-11
  21425.10  4.56113E-11
  21450.10  4.54249E-11
  21475.10  4.52394E-11
  21500.10  4.50546E-11
  21525.10  4.48704E-11
  21550.10  4.46872E-11
  21575.10  4.45046E-11
  21600.10  4.43228E-11
  21625.10  4.41418E-11
  21650.10  4.39615E-11
  21675.10  4.37818E-11
  21700.10  4.36030E-11
  21725.10  4.34247E-11
  21750.10  4.32474E-11
  21775.10  4.30707E-11
  21800.10  4.28947E-11
  21825.10  4.27195E-11
  21850.10  4.25449E-11
  21875.10  4.23711E-11
  21900.10  4.21980E-11
  21925.10  4.20256E-11
  21950.10  4.18539E-11
  21975.10  4.16828E-11
  22000.10  4.15125E-11
  22025.10  4.13430E-11
  22050.10  4.11741E-11
  22075.10  4.10059E-11
  22100.10  4.08384E-11
  22125.10  4.06716E-11
  22150.10  4.05054E-11
  22175.10  4.03398E-11
  22200.10  4.01750E-11
  22225.10  4.00109E-11
  22250.10  3.98475E-11
  22275.10  3.96847E-11
  22300.10  3.95225E-11
  22325.10  3.93611E-11
  22350.10  3.92002E-11
  22375.10  3.90401E-11
  22400.10  3.88806E-11
  22425.10  3.87218E-11
  22450.10  3.85635E-11
  22475.10  3.84060E-11
  22500.10  3.82491E-11
  22525.10  3.80928E-11
  22550.10  3.79372E-11
  22575.10  3.77822E-11
  22600.10  3.76278E-11
  22625.10  3.74741E-11
  22650.10  3.73210E-11
  22675.10  3.71685E-11
  22700.10  3.70167E-11
  22725.10  3.68655E-11
  22750.10  3.67149E-11
  22775.10  3.65648E-11
  22800.10  3.64155E-11
  22825.10  3.62666E-11
  22850.10  3.61185E-11
  22875.10  3.59710E-11
  22900.10  3.58240E-11
  22925.10  3.56777E-11
  22950.10  3.55319E-11
  22975.10  3.53867E-11
  23000.10  3.52421E-11
  23025.10  3.50982E-11
  23050.10  3.49548E-11
  23075.10  3.48120E-11
  23100.10  3.46697E-11
  23125.10  3.45281E-11
  23150.10  3.43870E-11
  23175.10  3.42465E-11
  23200.10  3.41066E-11
  23225.10  3.39673E-11
  23250.10  3.38286E-11
  23275.10  3.36903E-11
  23300.10  3.35526E-11
  23325.10  3.34156E-11
  23350.10  3.32791E-11
  23375.10  3.31431E-11
  23400.10  3.30077E-11
  23425.10  3.28728E-11
  23450.10  3.27386E-11
  23475.10  3.26047E-11
  23500.10  3.24716E-11
  23525.10  3.23389E-11
  23550.10  3.22068E-11
  23575.10  3.20752E-11
  23600.10  3.19442E-11
  23625.10  3.18136E-11
  23650.10  3.16837E-11
  23675.10  3.15542E-11
  23700.10  3.14253E-11
  23725.10  3.12969E-11
  23750.10  3.11691E-11
  23775.10  3.10418E-11
  23800.10  3.09150E-11
  23825.10  3.07886E-11
  23850.10  3.06628E-11
  23875.10  3.05376E-11
  23900.10  3.04128E-11
  23925.10  3.02885E-11
  23950.10  3.01648E-11
  23975.10  3.00415E-11
  24000.10  2.99188E-11
  24025.10  2.97966E-11
  24050.10  2.96749E-11
  24075.10  2.95536E-11
  24100.10  2.94329E-11
  24125.10  2.93126E-11
  24150.10  2.91929E-11
  24175.10  2.90736E-11
  24200.10  2.89548E-11
  24225.10  2.88365E-11
  24250.10  2.87187E-11
  24275.10  2.86014E-11
  24300.10  2.84845E-11
  24325.10  2.83682E-11
  24350.10  2.82523E-11
  24375.10  2.81368E-11
  24400.10  2.80219E-11
  24425.10  2.79074E-11
  24450.10  2.77934E-11
  24475.10  2.76798E-11
  24500.10  2.75668E-11
  24525.10  2.74541E-11
  24550.10  2.73420E-11
  24575.10  2.72303E-11
  24600.10  2.71190E-11
  24625.10  2.70082E-11
  24650.10  2.68979E-11
  24675.10  2.67879E-11
  24700.10  2.66785E-11
  24725.10  2.65695E-11
  24750.10  2.64610E-11
  24775.10  2.63529E-11
  24800.10  2.62452E-11
  24825.10  2.61380E-11
  24850.10  2.60312E-11
  24875.10  2.59249E-11
  24900.10  2.58189E-11
  24925.10  2.57134E-11
  24950.10  2.56084E-11
  24975.10  2.55038E-11
  25000.10  2.53996E-11
  25025.10  2.53128E-11
  25050.10  2.52261E-11
  25075.10  2.51399E-11
  25100.10  2.50539E-11
  25125.10  2.49682E-11
  25150.10  2.48828E-11
  25175.10  2.47977E-11
  25200.10  2.47129E-11
  25225.10  2.46283E-11
  25250.10  2.45441E-11
  25275.10  2.44601E-11
  25300.10  2.43764E-11
  25325.10  2.42931E-11
  25350.10  2.42100E-11
  25375.10  2.41272E-11
  25400.10  2.40447E-11
  25425.10  2.39624E-11
  25450.10  2.38804E-11
  25475.10  2.37987E-11
  25500.10  2.37173E-11
  25525.10  2.36362E-11
  25550.10  2.35553E-11
  25575.10  2.34748E-11
  25600.10  2.33945E-11
  25625.10  2.33145E-11
  25650.10  2.32347E-11
  25675.10  2.31552E-11
  25700.10  2.30760E-11
  25725.10  2.29970E-11
  25750.10  2.29184E-11
  25775.10  2.28400E-11
  25800.10  2.27619E-11
  25825.10  2.26840E-11
  25850.10  2.26064E-11
  25875.10  2.25291E-11
  25900.10  2.24520E-11
  25925.10  2.23752E-11
  25950.10  2.22987E-11
  25975.10  2.22224E-11
  26000.10  2.21464E-11
  26025.10  2.20706E-11
  26050.10  2.19952E-11
  26075.10  2.19199E-11
  26100.10  2.18450E-11
  26125.10  2.17702E-11
  26150.10  2.16957E-11
  26175.10  2.16215E-11
  26200.10  2.15475E-11
  26225.10  2.14739E-11
  26250.10  2.14004E-11
  26275.10  2.13272E-11
  26300.10  2.12542E-11
  26325.10  2.11815E-11
  26350.10  2.11091E-11
  26375.10  2.10369E-11
  26400.10  2.09649E-11
  26425.10  2.08932E-11
  26450.10  2.08217E-11
  26475.10  2.07505E-11
  26500.10  2.06795E-11
  26525.10  2.06088E-11
  26550.10  2.05383E-11
  26575.10  2.04681E-11
  26600.10  2.03980E-11
  26625.10  2.03282E-11
  26650.10  2.02587E-11
  26675.10  2.01894E-11
  26700.10  2.01204E-11
  26725.10  2.00515E-11
  26750.10  1.99829E-11
  26775.10  1.99146E-11
  26800.10  1.98465E-11
  26825.10  1.97786E-11
  26850.10  1.97109E-11
  26875.10  1.96435E-11
  26900.10  1.95763E-11
  26925.10  1.95094E-11
  26950.10  1.94426E-11
  26975.10  1.93761E-11
  27000.10  1.93098E-11
  27025.10  1.92438E-11
  27050.10  1.91780E-11
  27075.10  1.91124E-11
  27100.10  1.90470E-11
  27125.10  1.89818E-11
  27150.10  1.89169E-11
  27175.10  1.88522E-11
  27200.10  1.87877E-11
  27225.10  1.87234E-11
  27250.10  1.86594E-11
  27275.10  1.85956E-11
  27300.10  1.85320E-11
  27325.10  1.84685E-11
  27350.10  1.84054E-11
  27375.10  1.83424E-11
  27400.10  1.82797E-11
  27425.10  1.82172E-11
  27450.10  1.81548E-11
  27475.10  1.80927E-11
  27500.10  1.80308E-11
  27525.10  1.79692E-11
  27550.10  1.79077E-11
  27575.10  1.78464E-11
  27600.10  1.77854E-11
  27625.10  1.77245E-11
  27650.10  1.76639E-11
  27675.10  1.76035E-11
  27700.10  1.75433E-11
  27725.10  1.74833E-11
  27750.10  1.74235E-11
  27775.10  1.73639E-11
  27800.10  1.73045E-11
  27825.10  1.72453E-11
  27850.10  1.71863E-11
  27875.10  1.71275E-11
  27900.10  1.70689E-11
  27925.10  1.70105E-11
  27950.10  1.69524E-11
  27975.10  1.68943E-11
  28000.10  1.68366E-11
  28025.10  1.67790E-11
  28050.10  1.67216E-11
  28075.10  1.66644E-11
  28100.10  1.66074E-11
  28125.10  1.65506E-11
  28150.10  1.64940E-11
  28175.10  1.64376E-11
  28200.10  1.63813E-11
  28225.10  1.63253E-11
  28250.10  1.62694E-11
  28275.10  1.62138E-11
  28300.10  1.61583E-11
  28325.10  1.61031E-11
  28350.10  1.60480E-11
  28375.10  1.59931E-11
  28400.10  1.59384E-11
  28425.10  1.58839E-11
  28450.10  1.58295E-11
  28475.10  1.57753E-11
  28500.10  1.57214E-11
  28525.10  1.56676E-11
  28550.10  1.56140E-11
  28575.10  1.55606E-11
  28600.10  1.55074E-11
  28625.10  1.54543E-11
  28650.10  1.54015E-11
  28675.10  1.53488E-11
  28700.10  1.52963E-11
  28725.10  1.52440E-11
  28750.10  1.51918E-11
  28775.10  1.51399E-11
  28800.10  1.50881E-11
  28825.10  1.50365E-11
  28850.10  1.49850E-11
  28875.10  1.49338E-11
  28900.10  1.48827E-11
  28925.10  1.48318E-11
  28950.10  1.47811E-11
  28975.10  1.47305E-11
  29000.10  1.46801E-11
  29025.10  1.46299E-11
  29050.10  1.45798E-11
  29075.10  1.45299E-11
  29100.10  1.44803E-11
  29125.10  1.44307E-11
  29150.10  1.43814E-11
  29175.10  1.43322E-11
  29200.10  1.42832E-11
  29225.10  1.42343E-11
  29250.10  1.41856E-11
  29275.10  1.41371E-11
  29300.10  1.40887E-11
  29325.10  1.40405E-11
  29350.10  1.39925E-11
  29375.10  1.39446E-11
  29400.10  1.38970E-11
  29425.10  1.38494E-11
  29450.10  1.38020E-11
  29475.10  1.37548E-11
  29500.10  1.37078E-11
  29525.10  1.36609E-11
  29550.10  1.36141E-11
  29575.10  1.35676E-11
  29600.10  1.35212E-11
  29625.10  1.34749E-11
  29650.10  1.34288E-11
  29675.10  1.33829E-11
  29700.10  1.33371E-11
  29725.10  1.32915E-11
  29750.10  1.32460E-11
  29775.10  1.32007E-11
  29800.10  1.31556E-11
  29825.10  1.31105E-11
  29850.10  1.30657E-11
  29875.10  1.30210E-11
  29900.10  1.29765E-11
  29925.10  1.29321E-11
  29950.10  1.28879E-11
  29975.10  1.28438E-11
  30000.10  1.27998E-11
  30025.10  1.27630E-11
  30050.10  1.27262E-11
  30075.10  1.26896E-11
  30100.10  1.26531E-11
  30125.10  1.26166E-11
  30150.10  1.25803E-11
  30175.10  1.25441E-11
  30200.10  1.25079E-11
  30225.10  1.24719E-11
  30250.10  1.24360E-11
  30275.10  1.24002E-11
  30300.10  1.23645E-11
  30325.10  1.23289E-11
  30350.10  1.22934E-11
  30375.10  1.22580E-11
  30400.10  1.22227E-11
  30425.10  1.21875E-11
  30450.10  1.21524E-11
  30475.10  1.21174E-11
  30500.10  1.20825E-11
  30525.10  1.20477E-11
  30550.10  1.20130E-11
  30575.10  1.19784E-11
  30600.10  1.19439E-11
  30625.10  1.19095E-11
  30650.10  1.18752E-11
  30675.10  1.18410E-11
  30700.10  1.18070E-11
  30725.10  1.17729E-11
  30750.10  1.17390E-11
  30775.10  1.17052E-11
  30800.10  1.16716E-11
  30825.10  1.16379E-11
  30850.10  1.16044E-11
  30875.10  1.15710E-11
  30900.10  1.15377E-11
  30925.10  1.15044E-11
  30950.10  1.14713E-11
  30975.10  1.14383E-11
  31000.10  1.14054E-11
  31025.10  1.13725E-11
  31050.10  1.13398E-11
  31075.10  1.13071E-11
  31100.10  1.12745E-11
  31125.10  1.12421E-11
  31150.10  1.12097E-11
  31175.10  1.11774E-11
  31200.10  1.11452E-11
  31225.10  1.11131E-11
  31250.10  1.10812E-11
  31275.10  1.10492E-11
  31300.10  1.10174E-11
  31325.10  1.09857E-11
  31350.10  1.09540E-11
  31375.10  1.09225E-11
  31400.10  1.08910E-11
  31425.10  1.08597E-11
  31450.10  1.08284E-11
  31475.10  1.07973E-11
  31500.10  1.07662E-11
  31525.10  1.07352E-11
  31550.10  1.07043E-11
  31575.10  1.06734E-11
  31600.10  1.06427E-11
  31625.10  1.06120E-11
  31650.10  1.05815E-11
  31675.10  1.05510E-11
  31700.10  1.05206E-11
  31725.10  1.04903E-11
  31750.10  1.04601E-11
  31775.10  1.04300E-11
  31800.10  1.04000E-11
  31825.10  1.03700E-11
  31850.10  1.03401E-11
  31875.10  1.03104E-11
  31900.10  1.02807E-11
  31925.10  1.02511E-11
  31950.10  1.02215E-11
  31975.10  1.01921E-11
  32000.10  1.01628E-11
  32025.10  1.01335E-11
  32050.10  1.01043E-11
  32075.10  1.00753E-11
  32100.10  1.00462E-11
  32125.10  1.00173E-11
  32150.10  9.98846E-12
  32175.10  9.95968E-12
  32200.10  9.93102E-12
  32225.10  9.90241E-12
  32250.10  9.87390E-12
  32275.10  9.84547E-12
  32300.10  9.81710E-12
  32325.10  9.78884E-12
  32350.10  9.76066E-12
  32375.10  9.73253E-12
  32400.10  9.70451E-12
  32425.10  9.67657E-12
  32450.10  9.64871E-12
  32475.10  9.62093E-12
  32500.10  9.59321E-12
  32525.10  9.56559E-12
  32550.10  9.53805E-12
  32575.10  9.51057E-12
  32600.10  9.48319E-12
  32625.10  9.45589E-12
  32650.10  9.42866E-12
  32675.10  9.40152E-12
  32700.10  9.37443E-12
  32725.10  9.34744E-12
  32750.10  9.32053E-12
  32775.10  9.29367E-12
  32800.10  9.26694E-12
  32825.10  9.24023E-12
  32850.10  9.21363E-12
  32875.10  9.18710E-12
  32900.10  9.16063E-12
  32925.10  9.13426E-12
  32950.10  9.10796E-12
  32975.10  9.08172E-12
  33000.10  9.05557E-12
  33025.10  9.02950E-12
  33050.10  9.00350E-12
  33075.10  8.97758E-12
  33100.10  8.95171E-12
  33125.10  8.92594E-12
  33150.10  8.90024E-12
  33175.10  8.87460E-12
  33200.10  8.84907E-12
  33225.10  8.82357E-12
  33250.10  8.79815E-12
  33275.10  8.77284E-12
  33300.10  8.74756E-12
  33325.10  8.72237E-12
  33350.10  8.69726E-12
  33375.10  8.67220E-12
  33400.10  8.64725E-12
  33425.10  8.62234E-12
  33450.10  8.59751E-12
  33475.10  8.57276E-12
  33500.10  8.54806E-12
  33525.10  8.52345E-12
  33550.10  8.49891E-12
  33575.10  8.47444E-12
  33600.10  8.45004E-12
  33625.10  8.42570E-12
  33650.10  8.40144E-12
  33675.10  8.37725E-12
  33700.10  8.35311E-12
  33725.10  8.32906E-12
  33750.10  8.30508E-12
  33775.10  8.28115E-12
  33800.10  8.25733E-12
  33825.10  8.23354E-12
  33850.10  8.20983E-12
  33875.10  8.18618E-12
  33900.10  8.16263E-12
  33925.10  8.13913E-12
  33950.10  8.11567E-12
  33975.10  8.09231E-12
  34000.10  8.06901E-12
  34025.10  8.04576E-12
  34050.10  8.02260E-12
  34075.10  7.99948E-12
  34100.10  7.97647E-12
  34125.10  7.95349E-12
  34150.10  7.93059E-12
  34175.10  7.90774E-12
  34200.10  7.88499E-12
  34225.10  7.86227E-12
  34250.10  7.83963E-12
  34275.10  7.81706E-12
  34300.10  7.79455E-12
  34325.10  7.77210E-12
  34350.10  7.74972E-12
  34375.10  7.72739E-12
  34400.10  7.70516E-12
  34425.10  7.68296E-12
  34450.10  7.66084E-12
  34475.10  7.63878E-12
  34500.10  7.61677E-12
  34525.10  7.59486E-12
  34550.10  7.57298E-12
  34575.10  7.55118E-12
  34600.10  7.52944E-12
  34625.10  7.50774E-12
  34650.10  7.48613E-12
  34675.10  7.46457E-12
  34700.10  7.44308E-12
  34725.10  7.42165E-12
  34750.10  7.40027E-12
  34775.10  7.37896E-12
  34800.10  7.35770E-12
  34825.10  7.33653E-12
  34850.10  7.31539E-12
  34875.10  7.29433E-12
  34900.10  7.27332E-12
  34925.10  7.25239E-12
  34950.10  7.23150E-12
  34975.10  7.21068E-12
  35000.10  7.18992E-12
  35025.10  7.17188E-12
  35050.10  7.15388E-12
  35075.10  7.13593E-12
  35100.10  7.11803E-12
  35125.10  7.10015E-12
  35150.10  7.08234E-12
  35175.10  7.06457E-12
  35200.10  7.04685E-12
  35225.10  7.02917E-12
  35250.10  7.01153E-12
  35275.10  6.99394E-12
  35300.10  6.97639E-12
  35325.10  6.95887E-12
  35350.10  6.94141E-12
  35375.10  6.92400E-12
  35400.10  6.90661E-12
  35425.10  6.88927E-12
  35450.10  6.87198E-12
  35475.10  6.85474E-12
  35500.10  6.83754E-12
  35525.10  6.82038E-12
  35550.10  6.80326E-12
  35575.10  6.78620E-12
  35600.10  6.76918E-12
  35625.10  6.75218E-12
  35650.10  6.73524E-12
  35675.10  6.71834E-12
  35700.10  6.70148E-12
  35725.10  6.68465E-12
  35750.10  6.66788E-12
  35775.10  6.65115E-12
  35800.10  6.63447E-12
  35825.10  6.61782E-12
  35850.10  6.60122E-12
  35875.10  6.58465E-12
  35900.10  6.56813E-12
  35925.10  6.55164E-12
  35950.10  6.53520E-12
  35975.10  6.51879E-12
  36000.10  6.50243E-12
  36025.10  6.48612E-12
  36050.10  6.46985E-12
  36075.10  6.45361E-12
  36100.10  6.43742E-12
  36125.10  6.42126E-12
  36150.10  6.40513E-12
  36175.10  6.38906E-12
  36200.10  6.37305E-12
  36225.10  6.35704E-12
  36250.10  6.34109E-12
  36275.10  6.32518E-12
  36300.10  6.30931E-12
  36325.10  6.29348E-12
  36350.10  6.27768E-12
  36375.10  6.26193E-12
  36400.10  6.24623E-12
  36425.10  6.23056E-12
  36450.10  6.21491E-12
  36475.10  6.19932E-12
  36500.10  6.18375E-12
  36525.10  6.16824E-12
  36550.10  6.15276E-12
  36575.10  6.13733E-12
  36600.10  6.12193E-12
  36625.10  6.10655E-12
  36650.10  6.09123E-12
  36675.10  6.07595E-12
  36700.10  6.06071E-12
  36725.10  6.04549E-12
  36750.10  6.03032E-12
  36775.10  6.01519E-12
  36800.10  6.00010E-12
  36825.10  5.98504E-12
  36850.10  5.97001E-12
  36875.10  5.95503E-12
  36900.10  5.94011E-12
  36925.10  5.92519E-12
  36950.10  5.91032E-12
  36975.10  5.89548E-12
  37000.10  5.88069E-12
  37025.10  5.86593E-12
  37050.10  5.85122E-12
  37075.10  5.83654E-12
  37100.10  5.82189E-12
  37125.10  5.80729E-12
  37150.10  5.79272E-12
  37175.10  5.77817E-12
  37200.10  5.76367E-12
  37225.10  5.74920E-12
  37250.10  5.73477E-12
  37275.10  5.72039E-12
  37300.10  5.70603E-12
  37325.10  5.69172E-12
  37350.10  5.67742E-12
  37375.10  5.66318E-12
  37400.10  5.64896E-12
  37425.10  5.63479E-12
  37450.10  5.62065E-12
  37475.10  5.60655E-12
  37500.10  5.59248E-12
  37525.10  5.57845E-12
  37550.10  5.56445E-12
  37575.10  5.55049E-12
  37600.10  5.53656E-12
  37625.10  5.52267E-12
  37650.10  5.50880E-12
  37675.10  5.49498E-12
  37700.10  5.48118E-12
  37725.10  5.46743E-12
  37750.10  5.45371E-12
  37775.10  5.44003E-12
  37800.10  5.42638E-12
  37825.10  5.41277E-12
  37850.10  5.39919E-12
  37875.10  5.38564E-12
  37900.10  5.37212E-12
  37925.10  5.35864E-12
  37950.10  5.34518E-12
  37975.10  5.33177E-12
  38000.10  5.31839E-12
  38025.10  5.30505E-12
  38050.10  5.29174E-12
  38075.10  5.27846E-12
  38100.10  5.26522E-12
  38125.10  5.25201E-12
  38150.10  5.23882E-12
  38175.10  5.22568E-12
  38200.10  5.21255E-12
  38225.10  5.19948E-12
  38250.10  5.18643E-12
  38275.10  5.17342E-12
  38300.10  5.16044E-12
  38325.10  5.14749E-12
  38350.10  5.13458E-12
  38375.10  5.12168E-12
  38400.10  5.10883E-12
  38425.10  5.09601E-12
  38450.10  5.08323E-12
  38475.10  5.07046E-12
  38500.10  5.05774E-12
  38525.10  5.04505E-12
  38550.10  5.03239E-12
  38575.10  5.01977E-12
  38600.10  5.00716E-12
  38625.10  4.99460E-12
  38650.10  4.98207E-12
  38675.10  4.96958E-12
  38700.10  4.95710E-12
  38725.10  4.94466E-12
  38750.10  4.93226E-12
  38775.10  4.91987E-12
  38800.10  4.90753E-12
  38825.10  4.89521E-12
  38850.10  4.88293E-12
  38875.10  4.87068E-12
  38900.10  4.85846E-12
  38925.10  4.84626E-12
  38950.10  4.83410E-12
  38975.10  4.82196E-12
  39000.10  4.80986E-12
  39025.10  4.79780E-12
  39050.10  4.78576E-12
  39075.10  4.77375E-12
  39100.10  4.76176E-12
  39125.10  4.74982E-12
  39150.10  4.73790E-12
  39175.10  4.72601E-12
  39200.10  4.71414E-12
  39225.10  4.70232E-12
  39250.10  4.69052E-12
  39275.10  4.67875E-12
  39300.10  4.66701E-12
  39325.10  4.65530E-12
  39350.10  4.64362E-12
  39375.10  4.63197E-12
  39400.10  4.62034E-12
  39425.10  4.60875E-12
  39450.10  4.59718E-12
  39475.10  4.58565E-12
  39500.10  4.57413E-12
  39525.10  4.56266E-12
  39550.10  4.55121E-12
  39575.10  4.53979E-12
  39600.10  4.52839E-12
  39625.10  4.51703E-12
  39650.10  4.50570E-12
  39675.10  4.49439E-12
  39700.10  4.48310E-12
  39725.10  4.47186E-12
  39750.10  4.46064E-12
  39775.10  4.44945E-12
  39800.10  4.43828E-12
  39825.10  4.42714E-12
  39850.10  4.41603E-12
  39875.10  4.40495E-12
  39900.10  4.39390E-12
  39925.10  4.38287E-12
  39950.10  4.37188E-12
  39975.10  4.36091E-12
  40000.10  4.34997E-12
  40025.10  4.34040E-12
  40050.10  4.33085E-12
  40075.10  4.32131E-12
  40100.10  4.31180E-12
  40125.10  4.30232E-12
  40150.10  4.29285E-12
  40175.10  4.28341E-12
  40200.10  4.27398E-12
  40225.10  4.26458E-12
  40250.10  4.25520E-12
  40275.10  4.24583E-12
  40300.10  4.23649E-12
  40325.10  4.22717E-12
  40350.10  4.21787E-12
  40375.10  4.20858E-12
  40400.10  4.19932E-12
  40425.10  4.19008E-12
  40450.10  4.18086E-12
  40475.10  4.17166E-12
  40500.10  4.16248E-12
  40525.10  4.15331E-12
  40550.10  4.14418E-12
  40575.10  4.13507E-12
  40600.10  4.12597E-12
  40625.10  4.11689E-12
  40650.10  4.10784E-12
  40675.10  4.09879E-12
  40700.10  4.08977E-12
  40725.10  4.08077E-12
  40750.10  4.07180E-12
  40775.10  4.06284E-12
  40800.10  4.05390E-12
  40825.10  4.04498E-12
  40850.10  4.03608E-12
  40875.10  4.02720E-12
  40900.10  4.01833E-12
  40925.10  4.00949E-12
  40950.10  4.00067E-12
  40975.10  3.99186E-12
  41000.10  3.98308E-12
  41025.10  3.97431E-12
  41050.10  3.96557E-12
  41075.10  3.95685E-12
  41100.10  3.94814E-12
  41125.10  3.93945E-12
  41150.10  3.93078E-12
  41175.10  3.92213E-12
  41200.10  3.91351E-12
  41225.10  3.90490E-12
  41250.10  3.89630E-12
  41275.10  3.88774E-12
  41300.10  3.87918E-12
  41325.10  3.87064E-12
  41350.10  3.86213E-12
  41375.10  3.85363E-12
  41400.10  3.84515E-12
  41425.10  3.83668E-12
  41450.10  3.82824E-12
  41475.10  3.81982E-12
  41500.10  3.81142E-12
  41525.10  3.80303E-12
  41550.10  3.79467E-12
  41575.10  3.78631E-12
  41600.10  3.77798E-12
  41625.10  3.76967E-12
  41650.10  3.76137E-12
  41675.10  3.75309E-12
  41700.10  3.74484E-12
  41725.10  3.73659E-12
  41750.10  3.72838E-12
  41775.10  3.72017E-12
  41800.10  3.71198E-12
  41825.10  3.70382E-12
  41850.10  3.69567E-12
  41875.10  3.68754E-12
  41900.10  3.67942E-12
  41925.10  3.67133E-12
  41950.10  3.66324E-12
  41975.10  3.65519E-12
  42000.10  3.64714E-12
  42025.10  3.63913E-12
  42050.10  3.63112E-12
  42075.10  3.62313E-12
  42100.10  3.61515E-12
  42125.10  3.60721E-12
  42150.10  3.59926E-12
  42175.10  3.59134E-12
  42200.10  3.58344E-12
  42225.10  3.57555E-12
  42250.10  3.56768E-12
  42275.10  3.55983E-12
  42300.10  3.55200E-12
  42325.10  3.54419E-12
  42350.10  3.53638E-12
  42375.10  3.52860E-12
  42400.10  3.52084E-12
  42425.10  3.51309E-12
  42450.10  3.50536E-12
  42475.10  3.49764E-12
  42500.10  3.48996E-12
  42525.10  3.48227E-12
  42550.10  3.47462E-12
  42575.10  3.46696E-12
  42600.10  3.45934E-12
  42625.10  3.45173E-12
  42650.10  3.44413E-12
  42675.10  3.43655E-12
  42700.10  3.42899E-12
  42725.10  3.42145E-12
  42750.10  3.41392E-12
  42775.10  3.40641E-12
  42800.10  3.39891E-12
  42825.10  3.39143E-12
  42850.10  3.38397E-12
  42875.10  3.37653E-12
  42900.10  3.36910E-12
  42925.10  3.36168E-12
  42950.10  3.35429E-12
  42975.10  3.34690E-12
  43000.10  3.33955E-12
  43025.10  3.33219E-12
  43050.10  3.32486E-12
  43075.10  3.31754E-12
  43100.10  3.31025E-12
  43125.10  3.30296E-12
  43150.10  3.29569E-12
  43175.10  3.28845E-12
  43200.10  3.28120E-12
  43225.10  3.27398E-12
  43250.10  3.26678E-12
  43275.10  3.25959E-12
  43300.10  3.25242E-12
  43325.10  3.24527E-12
  43350.10  3.23813E-12
  43375.10  3.23100E-12
  43400.10  3.22390E-12
  43425.10  3.21680E-12
  43450.10  3.20972E-12
  43475.10  3.20266E-12
  43500.10  3.19561E-12
  43525.10  3.18858E-12
  43550.10  3.18156E-12
  43575.10  3.17456E-12
  43600.10  3.16757E-12
  43625.10  3.16060E-12
  43650.10  3.15365E-12
  43675.10  3.14671E-12
  43700.10  3.13979E-12
  43725.10  3.13288E-12
  43750.10  3.12599E-12
  43775.10  3.11911E-12
  43800.10  3.11224E-12
  43825.10  3.10540E-12
  43850.10  3.09856E-12
  43875.10  3.09174E-12
  43900.10  3.08494E-12
  43925.10  3.07815E-12
  43950.10  3.07138E-12
  43975.10  3.06462E-12
  44000.10  3.05788E-12
  44025.10  3.05115E-12
  44050.10  3.04444E-12
  44075.10  3.03774E-12
  44100.10  3.03106E-12
  44125.10  3.02439E-12
  44150.10  3.01773E-12
  44175.10  3.01109E-12
  44200.10  3.00446E-12
  44225.10  2.99785E-12
  44250.10  2.99126E-12
  44275.10  2.98468E-12
  44300.10  2.97810E-12
  44325.10  2.97155E-12
  44350.10  2.96501E-12
  44375.10  2.95849E-12
  44400.10  2.95198E-12
  44425.10  2.94549E-12
  44450.10  2.93901E-12
  44475.10  2.93253E-12
  44500.10  2.92608E-12
  44525.10  2.91965E-12
  44550.10  2.91322E-12
  44575.10  2.90681E-12
  44600.10  2.90042E-12
  44625.10  2.89404E-12
  44650.10  2.88767E-12
  44675.10  2.88132E-12
  44700.10  2.87498E-12
  44725.10  2.86865E-12
  44750.10  2.86234E-12
  44775.10  2.85604E-12
  44800.10  2.84975E-12
  44825.10  2.84348E-12
  44850.10  2.83723E-12
  44875.10  2.83099E-12
  44900.10  2.82476E-12
  44925.10  2.81854E-12
  44950.10  2.81234E-12
  44975.10  2.80615E-12
  45000.10  2.79997E-12
  45025.10  2.79440E-12
  45050.10  2.78884E-12
  45075.10  2.78330E-12
  45100.10  2.77776E-12
  45125.10  2.77223E-12
  45150.10  2.76671E-12
  45175.10  2.76121E-12
  45200.10  2.75571E-12
  45225.10  2.75024E-12
  45250.10  2.74476E-12
  45275.10  2.73930E-12
  45300.10  2.73385E-12
  45325.10  2.72841E-12
  45350.10  2.72298E-12
  45375.10  2.71756E-12
  45400.10  2.71215E-12
  45425.10  2.70676E-12
  45450.10  2.70137E-12
  45475.10  2.69600E-12
  45500.10  2.69063E-12
  45525.10  2.68527E-12
  45550.10  2.67993E-12
  45575.10  2.67460E-12
  45600.10  2.66928E-12
  45625.10  2.66397E-12
  45650.10  2.65866E-12
  45675.10  2.65338E-12
  45700.10  2.64810E-12
  45725.10  2.64283E-12
  45750.10  2.63757E-12
  45775.10  2.63233E-12
  45800.10  2.62708E-12
  45825.10  2.62186E-12
  45850.10  2.61664E-12
  45875.10  2.61144E-12
  45900.10  2.60624E-12
  45925.10  2.60106E-12
  45950.10  2.59587E-12
  45975.10  2.59072E-12
  46000.10  2.58556E-12
  46025.10  2.58042E-12
  46050.10  2.57528E-12
  46075.10  2.57015E-12
  46100.10  2.56504E-12
  46125.10  2.55993E-12
  46150.10  2.55484E-12
  46175.10  2.54975E-12
  46200.10  2.54468E-12
  46225.10  2.53962E-12
  46250.10  2.53457E-12
  46275.10  2.52953E-12
  46300.10  2.52449E-12
  46325.10  2.51947E-12
  46350.10  2.51446E-12
  46375.10  2.50945E-12
  46400.10  2.50447E-12
  46425.10  2.49948E-12
  46450.10  2.49450E-12
  46475.10  2.48954E-12
  46500.10  2.48459E-12
  46525.10  2.47964E-12
  46550.10  2.47471E-12
  46575.10  2.46979E-12
  46600.10  2.46487E-12
  46625.10  2.45997E-12
  46650.10  2.45507E-12
  46675.10  2.45019E-12
  46700.10  2.44531E-12
  46725.10  2.44044E-12
  46750.10  2.43559E-12
  46775.10  2.43074E-12
  46800.10  2.42591E-12
  46825.10  2.42108E-12
  46850.10  2.41626E-12
  46875.10  2.41145E-12
  46900.10  2.40666E-12
  46925.10  2.40187E-12
  46950.10  2.39709E-12
  46975.10  2.39232E-12
  47000.10  2.38756E-12
  47025.10  2.38281E-12
  47050.10  2.37807E-12
  47075.10  2.37334E-12
  47100.10  2.36862E-12
  47125.10  2.36390E-12
  47150.10  2.35920E-12
  47175.10  2.35450E-12
  47200.10  2.34982E-12
  47225.10  2.34514E-12
  47250.10  2.34048E-12
  47275.10  2.33582E-12
  47300.10  2.33117E-12
  47325.10  2.32653E-12
  47350.10  2.32190E-12
  47375.10  2.31728E-12
  47400.10  2.31267E-12
  47425.10  2.30807E-12
  47450.10  2.30348E-12
  47475.10  2.29889E-12
  47500.10  2.29432E-12
  47525.10  2.28975E-12
  47550.10  2.28520E-12
  47575.10  2.28065E-12
  47600.10  2.27611E-12
  47625.10  2.27158E-12
  47650.10  2.26707E-12
  47675.10  2.26255E-12
  47700.10  2.25805E-12
  47725.10  2.25356E-12
  47750.10  2.24908E-12
  47775.10  2.24460E-12
  47800.10  2.24013E-12
  47825.10  2.23568E-12
  47850.10  2.23123E-12
  47875.10  2.22679E-12
  47900.10  2.22236E-12
  47925.10  2.21794E-12
  47950.10  2.21352E-12
  47975.10  2.20912E-12
  48000.10  2.20472E-12
  48025.10  2.20034E-12
  48050.10  2.19596E-12
  48075.10  2.19159E-12
  48100.10  2.18722E-12
  48125.10  2.18288E-12
  48150.10  2.17853E-12
  48175.10  2.17420E-12
  48200.10  2.16987E-12
  48225.10  2.16556E-12
  48250.10  2.16125E-12
  48275.10  2.15695E-12
  48300.10  2.15265E-12
  48325.10  2.14837E-12
  48350.10  2.14409E-12
  48375.10  2.13983E-12
  48400.10  2.13557E-12
  48425.10  2.13132E-12
  48450.10  2.12708E-12
  48475.10  2.12285E-12
  48500.10  2.11862E-12
  48525.10  2.11441E-12
  48550.10  2.11020E-12
  48575.10  2.10601E-12
  48600.10  2.10181E-12
  48625.10  2.09763E-12
  48650.10  2.09346E-12
  48675.10  2.08929E-12
  48700.10  2.08514E-12
  48725.10  2.08098E-12
  48750.10  2.07684E-12
  48775.10  2.07271E-12
  48800.10  2.06859E-12
  48825.10  2.06447E-12
  48850.10  2.06036E-12
  48875.10  2.05627E-12
  48900.10  2.05217E-12
  48925.10  2.04809E-12
  48950.10  2.04401E-12
  48975.10  2.03995E-12
  49000.10  2.03589E-12
  49025.10  2.03184E-12
  49050.10  2.02779E-12
  49075.10  2.02376E-12
  49100.10  2.01973E-12
  49125.10  2.01571E-12
  49150.10  2.01170E-12
  49175.10  2.00770E-12
  49200.10  2.00371E-12
  49225.10  1.99972E-12
  49250.10  1.99574E-12
  49275.10  1.99177E-12
  49300.10  1.98781E-12
  49325.10  1.98385E-12
  49350.10  1.97990E-12
  49375.10  1.97596E-12
  49400.10  1.97203E-12
  49425.10  1.96811E-12
  49450.10  1.96419E-12
  49475.10  1.96028E-12
  49500.10  1.95638E-12
  49525.10  1.95249E-12
  49550.10  1.94861E-12
  49575.10  1.94473E-12
  49600.10  1.94086E-12
  49625.10  1.93700E-12
  49650.10  1.93315E-12
  49675.10  1.92929E-12
  49700.10  1.92546E-12
  49725.10  1.92162E-12
  49750.10  1.91780E-12
  49775.10  1.91399E-12
  49800.10  1.91018E-12
  49825.10  1.90638E-12
  49850.10  1.90259E-12
  49875.10  1.89880E-12
  49900.10  1.89502E-12
  49925.10  1.89125E-12
  49950.10  1.88749E-12
  49975.10  1.88373E-12
  50000.10  1.87998E-12
